#Typical Measured Spectrum of Semrock FF552-Di02 Optical Filter	
#For wavelengths between 320 and 1120 nm, values near or below 3e-7 (Optical Density 6.5) are measurement noise limited.
#For wavelengths < 320 nm and > 1120 nm, values near or below 3e-6 (Optical Density 5.5) are measurement noise limited. 
#Data format:  Wavelength (nm) <tab> Transmission (0 to 1)

340.0	0.00184
340.2	0.00198
340.4	0.00236
340.6	0.00281
340.8	0.004
341.0	0.00644
341.2	0.01101
341.4	0.01769
341.6	0.02566
341.8	0.03387
342.0	0.04146
342.2	0.04894
342.4	0.05822
342.6	0.07062
342.8	0.09205
343.0	0.12317
343.2	0.16504
343.4	0.20797
343.6	0.24712
343.8	0.27663
344.0	0.29406
344.2	0.3004
344.4	0.28853
344.6	0.26373
344.8	0.23438
345.0	0.20485
345.2	0.17586
345.4	0.14535
345.6	0.11485
345.8	0.08687
346.0	0.06474
346.2	0.04965
346.4	0.04035
346.6	0.03561
346.8	0.03302
347.0	0.0321
347.2	0.03174
347.4	0.03057
347.6	0.02911
347.8	0.02714
348.0	0.02497
348.2	0.02149
348.4	0.01854
348.6	0.01546
348.8	0.01352
349.0	0.01176
349.2	0.01112
349.4	0.01067
349.6	0.01074
349.8	0.0116
350.0	0.01289
350.2	0.01401
350.4	0.01547
350.6	0.01647
350.8	0.01677
351.0	0.01653
351.2	0.01553
351.4	0.01393
351.6	0.0124
351.8	0.01079
352.0	0.00957
352.2	0.00874
352.4	0.00843
352.6	0.00858
352.8	0.00947
353.0	0.0104
353.2	0.01229
353.4	0.01395
353.6	0.01561
353.8	0.0166
354.0	0.01781
354.2	0.01771
354.4	0.01722
354.6	0.01621
354.8	0.01439
355.0	0.0129
355.2	0.01204
355.4	0.01141
355.6	0.01165
355.8	0.01261
356.0	0.01341
356.2	0.01445
356.4	0.01479
356.6	0.01499
356.8	0.01417
357.0	0.01307
357.2	0.01138
357.4	0.00955
357.6	0.00757
357.8	0.00592
358.0	0.0051
358.2	0.00441
358.4	0.00408
358.6	0.0038
358.8	0.00386
359.0	0.00394
359.2	0.00401
359.4	0.00397
359.6	0.00376
359.8	0.0037
360.0	0.00336
360.2	0.00298
360.4	0.00264
360.6	0.00219
360.8	0.00179
361.0	0.00162
361.2	0.00135
361.4	0.0012
361.6	0.00105
361.8	0.00107
362.0	0.00103
362.2	0.00108
362.4	0.00124
362.6	0.00119
362.8	0.00139
363.0	0.00162
363.2	0.00156
363.4	0.00155
363.6	0.00149
363.8	0.0015
364.0	0.00141
364.2	0.00135
364.4	0.00113
364.6	9.3984e-04
364.8	8.8466e-04
365.0	7.4202e-04
365.2	8.8614e-04
365.4	8.3449e-04
365.6	9.843e-04
365.8	9.0913e-04
366.0	0.00125
366.2	0.00108
366.4	0.00133
366.6	0.00117
366.8	0.00116
367.0	0.00159
367.2	0.00163
367.4	0.00174
367.6	0.00145
367.8	0.00134
368.0	0.00134
368.2	0.00111
368.4	9.9483e-04
368.6	9.7531e-04
368.8	9.3288e-04
369.0	9.2799e-04
369.2	0.00105
369.4	9.3638e-04
369.6	9.0941e-04
369.8	0.00107
370.0	0.00107
370.2	0.00129
370.4	0.00136
370.6	0.00146
370.8	0.0014
371.0	0.00134
371.2	0.00139
371.4	0.00124
371.6	0.00115
371.8	0.00102
372.0	0.00107
372.2	0.00103
372.4	8.72e-04
372.6	7.0201e-04
372.8	7.7856e-04
373.0	5.6493e-04
373.2	6.7696e-04
373.4	6.5126e-04
373.6	7.2352e-04
373.8	8.0954e-04
374.0	8.7422e-04
374.2	9.8142e-04
374.4	0.00131
374.6	0.00121
374.8	0.00109
375.0	0.00128
375.2	0.00133
375.4	0.00118
375.6	0.00103
375.8	0.00115
376.0	0.00112
376.2	9.8109e-04
376.4	0.00108
376.6	8.8029e-04
376.8	7.9376e-04
377.0	9.1033e-04
377.2	8.7362e-04
377.4	8.2897e-04
377.6	0.00112
377.8	0.00119
378.0	0.00123
378.2	0.00132
378.4	0.00157
378.6	0.00167
378.8	0.00173
379.0	0.00192
379.2	0.00192
379.4	0.00179
379.6	0.00183
379.8	0.00166
380.0	0.00161
380.2	0.00153
380.4	0.00136
380.6	0.00122
380.8	0.00132
381.0	0.00122
381.2	0.0015
381.4	0.00156
381.6	0.00161
381.8	0.00187
382.0	0.00201
382.2	0.0022
382.4	0.00211
382.6	0.00206
382.8	0.00186
383.0	0.00177
383.2	0.00155
383.4	0.00123
383.6	0.00105
383.8	7.4838e-04
384.0	6.9618e-04
384.2	6.3115e-04
384.4	7.3388e-04
384.6	6.0045e-04
384.8	6.9242e-04
385.0	7.054e-04
385.2	7.0887e-04
385.4	6.9179e-04
385.6	7.2398e-04
385.8	8.4305e-04
386.0	8.8289e-04
386.2	9.0506e-04
386.4	0.00101
386.6	8.6926e-04
386.8	7.1563e-04
387.0	6.7091e-04
387.2	6.6294e-04
387.4	5.923e-04
387.6	5.1154e-04
387.8	4.8981e-04
388.0	3.446e-04
388.2	4.944e-04
388.4	3.5583e-04
388.6	3.28e-04
388.8	2.5022e-04
389.0	3.5358e-04
389.2	2.9513e-04
389.4	3.7879e-04
389.6	3.5492e-04
389.8	3.7455e-04
390.0	4.0627e-04
390.2	4.0253e-04
390.4	4.9262e-04
390.6	5.2208e-04
390.8	5.1971e-04
391.0	5.3264e-04
391.2	6.8797e-04
391.4	7.924e-04
391.6	6.955e-04
391.8	6.503e-04
392.0	0.00116
392.2	0.00111
392.4	0.0013
392.6	0.00142
392.8	0.00107
393.0	0.00125
393.2	9.689e-04
393.4	0.00102
393.6	9.4153e-04
393.8	9.3661e-04
394.0	9.9341e-04
394.2	0.00117
394.4	0.00102
394.6	9.8329e-04
394.8	0.0011
395.0	0.00134
395.2	0.00136
395.4	0.00101
395.6	0.00125
395.8	0.00131
396.0	0.0018
396.2	0.00164
396.4	0.00191
396.6	0.00218
396.8	0.0019
397.0	0.00229
397.2	0.00209
397.4	0.00213
397.6	0.0021
397.8	0.00188
398.0	0.00171
398.2	0.00185
398.4	0.0017
398.6	0.00156
398.8	0.00138
399.0	0.00159
399.2	0.00166
399.4	0.00172
399.6	0.00209
399.8	0.00201
400.0	0.00247
400.2	0.00269
400.4	0.00348
400.6	0.0037
400.8	0.00411
401.0	0.00441
401.2	0.00445
401.4	0.00448
401.6	0.00455
401.8	0.0042
402.0	0.00355
402.2	0.00338
402.4	0.00322
402.6	0.00284
402.8	0.00256
403.0	0.00209
403.2	0.00221
403.4	0.00204
403.6	0.00212
403.8	0.00216
404.0	0.00202
404.2	0.0023
404.4	0.00273
404.6	0.00297
404.8	0.00371
405.0	0.00459
405.2	0.00572
405.4	0.00774
405.6	0.00991
405.8	0.01223
406.0	0.01422
406.2	0.01565
406.4	0.01677
406.6	0.01693
406.8	0.01669
407.0	0.01558
407.2	0.01411
407.4	0.01216
407.6	0.01014
407.8	0.00851
408.0	0.0073
408.2	0.00675
408.4	0.00616
408.6	0.00552
408.8	0.00531
409.0	0.00543
409.2	0.00507
409.4	0.00531
409.6	0.00543
409.8	0.00538
410.0	0.00544
410.2	0.00571
410.4	0.00557
410.6	0.00566
410.8	0.00587
411.0	0.0059
411.2	0.00572
411.4	0.00583
411.6	0.0059
411.8	0.00576
412.0	0.00571
412.2	0.006
412.4	0.00584
412.6	0.00597
412.8	0.00602
413.0	0.00625
413.2	0.00641
413.4	0.00667
413.6	0.00698
413.8	0.0073
414.0	0.00734
414.2	0.00779
414.4	0.00802
414.6	0.0084
414.8	0.00852
415.0	0.00836
415.2	0.00835
415.4	0.0084
415.6	0.00833
415.8	0.00813
416.0	0.00794
416.2	0.0078
416.4	0.00776
416.6	0.00755
416.8	0.00747
417.0	0.00737
417.2	0.00725
417.4	0.00743
417.6	0.00765
417.8	0.00778
418.0	0.00806
418.2	0.00848
418.4	0.00886
418.6	0.0095
418.8	0.01042
419.0	0.01087
419.2	0.01165
419.4	0.01244
419.6	0.01322
419.8	0.01409
420.0	0.01496
420.2	0.01563
420.4	0.0161
420.6	0.01663
420.8	0.01715
421.0	0.01743
421.2	0.01745
421.4	0.01754
421.6	0.01747
421.8	0.01714
422.0	0.01696
422.2	0.01712
422.4	0.01681
422.6	0.01674
422.8	0.01663
423.0	0.01649
423.2	0.0167
423.4	0.01677
423.6	0.01693
423.8	0.01723
424.0	0.0176
424.2	0.01827
424.4	0.01866
424.6	0.01886
424.8	0.01975
425.0	0.02026
425.2	0.02066
425.4	0.0214
425.6	0.02162
425.8	0.02193
426.0	0.02191
426.2	0.02181
426.4	0.02141
426.6	0.02092
426.8	0.0202
427.0	0.0197
427.2	0.01882
427.4	0.0179
427.6	0.01704
427.8	0.01598
428.0	0.015
428.2	0.01421
428.4	0.01342
428.6	0.01274
428.8	0.01199
429.0	0.01169
429.2	0.0113
429.4	0.01107
429.6	0.01083
429.8	0.01072
430.0	0.01082
430.2	0.01074
430.4	0.01083
430.6	0.01118
430.8	0.01136
431.0	0.01163
431.2	0.01186
431.4	0.01215
431.6	0.01239
431.8	0.01255
432.0	0.01256
432.2	0.01258
432.4	0.01244
432.6	0.01218
432.8	0.01195
433.0	0.01151
433.2	0.01106
433.4	0.01064
433.6	0.01013
433.8	0.00973
434.0	0.00929
434.2	0.00879
434.4	0.00853
434.6	0.00823
434.8	0.00807
435.0	0.00789
435.2	0.00778
435.4	0.00772
435.6	0.00778
435.8	0.0079
436.0	0.00796
436.2	0.00828
436.4	0.00851
436.6	0.00876
436.8	0.00916
437.0	0.00964
437.2	0.01003
437.4	0.01037
437.6	0.01074
437.8	0.01115
438.0	0.01127
438.2	0.01143
438.4	0.01173
438.6	0.0116
438.8	0.01164
439.0	0.01157
439.2	0.01134
439.4	0.01103
439.6	0.01086
439.8	0.01067
440.0	0.01022
440.2	0.0101
440.4	0.00984
440.6	0.00962
440.8	0.00951
441.0	0.00935
441.2	0.00949
441.4	0.00945
441.6	0.00949
441.8	0.00978
442.0	0.00994
442.2	0.01041
442.4	0.01071
442.6	0.01106
442.8	0.01173
443.0	0.0124
443.2	0.01307
443.4	0.0139
443.6	0.01469
443.8	0.01563
444.0	0.01655
444.2	0.01738
444.4	0.01835
444.6	0.01918
444.8	0.01983
445.0	0.02043
445.2	0.02094
445.4	0.02129
445.6	0.02159
445.8	0.02173
446.0	0.02158
446.2	0.02136
446.4	0.02112
446.6	0.02087
446.8	0.0203
447.0	0.01977
447.2	0.01942
447.4	0.01892
447.6	0.01847
447.8	0.01801
448.0	0.01755
448.2	0.01724
448.4	0.01679
448.6	0.01659
448.8	0.01631
449.0	0.01618
449.2	0.01601
449.4	0.01585
449.6	0.01602
449.8	0.01611
450.0	0.01618
450.2	0.01628
450.4	0.01643
450.6	0.01668
450.8	0.01682
451.0	0.01703
451.2	0.01727
451.4	0.01735
451.6	0.01736
451.8	0.01725
452.0	0.01719
452.2	0.01677
452.4	0.01647
452.6	0.01607
452.8	0.01543
453.0	0.01468
453.2	0.0141
453.4	0.0132
453.6	0.01237
453.8	0.01155
454.0	0.01083
454.2	0.01015
454.4	0.00929
454.6	0.00875
454.8	0.00826
455.0	0.00785
455.2	0.0073
455.4	0.00709
455.6	0.00685
455.8	0.00664
456.0	0.00651
456.2	0.00638
456.4	0.00644
456.6	0.00654
456.8	0.00674
457.0	0.00706
457.2	0.0075
457.4	0.00799
457.6	0.00872
457.8	0.00949
458.0	0.01051
458.2	0.01139
458.4	0.01246
458.6	0.01347
458.8	0.01432
459.0	0.01515
459.2	0.01579
459.4	0.01623
459.6	0.01649
459.8	0.01644
460.0	0.01623
460.2	0.0159
460.4	0.0155
460.6	0.01506
460.8	0.01419
461.0	0.01358
461.2	0.01296
461.4	0.0123
461.6	0.01182
461.8	0.01131
462.0	0.01087
462.2	0.0104
462.4	0.01022
462.6	0.01001
462.8	0.01002
463.0	0.01019
463.2	0.0104
463.4	0.01089
463.6	0.01169
463.8	0.0125
464.0	0.0136
464.2	0.01467
464.4	0.01583
464.6	0.01701
464.8	0.01798
465.0	0.01892
465.2	0.01976
465.4	0.02055
465.6	0.02117
465.8	0.02147
466.0	0.02177
466.2	0.02195
466.4	0.02194
466.6	0.02165
466.8	0.02137
467.0	0.02114
467.2	0.02084
467.4	0.02025
467.6	0.01977
467.8	0.01915
468.0	0.01843
468.2	0.01777
468.4	0.01687
468.6	0.01614
468.8	0.01569
469.0	0.01524
469.2	0.01476
469.4	0.01448
469.6	0.01439
469.8	0.01426
470.0	0.01425
470.2	0.01447
470.4	0.0146
470.6	0.0149
470.8	0.01539
471.0	0.01594
471.2	0.01653
471.4	0.01712
471.6	0.01787
471.8	0.01846
472.0	0.01916
472.2	0.01972
472.4	0.02003
472.6	0.02042
472.8	0.02056
473.0	0.02034
473.2	0.01992
473.4	0.01927
473.6	0.0185
473.8	0.01739
474.0	0.01648
474.2	0.01524
474.4	0.01411
474.6	0.01298
474.8	0.012
475.0	0.01102
475.2	0.01036
475.4	0.00969
475.6	0.00906
475.8	0.00864
476.0	0.00825
476.2	0.00805
476.4	0.00782
476.6	0.00781
476.8	0.00774
477.0	0.00781
477.2	0.00791
477.4	0.00803
477.6	0.00842
477.8	0.00878
478.0	0.00915
478.2	0.00966
478.4	0.01026
478.6	0.01093
478.8	0.01158
479.0	0.01238
479.2	0.01308
479.4	0.01404
479.6	0.01484
479.8	0.01565
480.0	0.01625
480.2	0.01703
480.4	0.01744
480.6	0.01786
480.8	0.01799
481.0	0.01791
481.2	0.01773
481.4	0.01741
481.6	0.01687
481.8	0.01627
482.0	0.01577
482.2	0.01501
482.4	0.01436
482.6	0.01372
482.8	0.01303
483.0	0.01252
483.2	0.01203
483.4	0.01168
483.6	0.01124
483.8	0.01105
484.0	0.01082
484.2	0.01062
484.4	0.01061
484.6	0.01055
484.8	0.01053
485.0	0.01066
485.2	0.01091
485.4	0.0112
485.6	0.01133
485.8	0.01169
486.0	0.01202
486.2	0.01252
486.4	0.01299
486.6	0.01356
486.8	0.0142
487.0	0.0148
487.2	0.01578
487.4	0.01659
487.6	0.01757
487.8	0.01862
488.0	0.01962
488.2	0.02074
488.4	0.02177
488.6	0.02286
488.8	0.02369
489.0	0.02445
489.2	0.02487
489.4	0.02508
489.6	0.02503
489.8	0.02444
490.0	0.02381
490.2	0.02283
490.4	0.02148
490.6	0.02011
490.8	0.01842
491.0	0.01679
491.2	0.01508
491.4	0.01344
491.6	0.01199
491.8	0.01052
492.0	0.00924
492.2	0.0082
492.4	0.00716
492.6	0.00642
492.8	0.00574
493.0	0.00529
493.2	0.00477
493.4	0.0043
493.6	0.00402
493.8	0.00377
494.0	0.00355
494.2	0.00341
494.4	0.00336
494.6	0.00326
494.8	0.00324
495.0	0.00329
495.2	0.00328
495.4	0.00343
495.6	0.00342
495.8	0.00349
496.0	0.00359
496.2	0.00372
496.4	0.00374
496.6	0.00382
496.8	0.00387
497.0	0.00393
497.2	0.00411
497.4	0.00428
497.6	0.00442
497.8	0.00463
498.0	0.005
498.2	0.00539
498.4	0.00587
498.6	0.00637
498.8	0.00682
499.0	0.00726
499.2	0.00773
499.4	0.00796
499.6	0.00809
499.8	0.00821
500.0	0.00802
500.2	0.0078
500.4	0.00745
500.6	0.00701
500.8	0.00651
501.0	0.00585
501.2	0.00534
501.4	0.00479
501.6	0.00433
501.8	0.00386
502.0	0.00354
502.2	0.00324
502.4	0.00308
502.6	0.00296
502.8	0.00286
503.0	0.0027
503.2	0.00267
503.4	0.00258
503.6	0.00254
503.8	0.00241
504.0	0.00233
504.2	0.00224
504.4	0.00225
504.6	0.00211
504.8	0.00209
505.0	0.00196
505.2	0.00188
505.4	0.00187
505.6	0.00183
505.8	0.00189
506.0	0.00197
506.2	0.00216
506.4	0.00227
506.6	0.00255
506.8	0.00287
507.0	0.00328
507.2	0.00389
507.4	0.00475
507.6	0.00569
507.8	0.00699
508.0	0.00823
508.2	0.00961
508.4	0.01072
508.6	0.01162
508.8	0.0123
509.0	0.01269
509.2	0.01271
509.4	0.01248
509.6	0.01191
509.8	0.01118
510.0	0.01005
510.2	0.00875
510.4	0.00734
510.6	0.00608
510.8	0.00488
511.0	0.00395
511.2	0.00318
511.4	0.00259
511.6	0.00222
511.8	0.00188
512.0	0.00168
512.2	0.00154
512.4	0.00135
512.6	0.00124
512.8	0.00122
513.0	0.00119
513.2	0.00104
513.4	0.00103
513.6	0.00104
513.8	9.9421e-04
514.0	9.649e-04
514.2	9.7495e-04
514.4	9.6449e-04
514.6	8.8333e-04
514.8	9.4088e-04
515.0	9.2262e-04
515.2	9.6774e-04
515.4	9.6121e-04
515.6	9.4613e-04
515.8	9.8896e-04
516.0	0.00104
516.2	0.00108
516.4	0.00114
516.6	0.0012
516.8	0.00127
517.0	0.00131
517.2	0.0014
517.4	0.00149
517.6	0.00167
517.8	0.00178
518.0	0.00201
518.2	0.00225
518.4	0.0026
518.6	0.00293
518.8	0.00334
519.0	0.00381
519.2	0.00436
519.4	0.00485
519.6	0.00537
519.8	0.00585
520.0	0.00633
520.2	0.00668
520.4	0.00688
520.6	0.00715
520.8	0.00725
521.0	0.00729
521.2	0.00712
521.4	0.007
521.6	0.00665
521.8	0.00628
522.0	0.00584
522.2	0.00537
522.4	0.00488
522.6	0.0044
522.8	0.00397
523.0	0.00357
523.2	0.00322
523.4	0.00291
523.6	0.00266
523.8	0.00248
524.0	0.00226
524.2	0.0022
524.4	0.00205
524.6	0.00201
524.8	0.00192
525.0	0.00191
525.2	0.00182
525.4	0.00185
525.6	0.00181
525.8	0.00174
526.0	0.00174
526.2	0.00174
526.4	0.00171
526.6	0.00175
526.8	0.00181
527.0	0.00186
527.2	0.00192
527.4	0.00206
527.6	0.00214
527.8	0.00224
528.0	0.00235
528.2	0.00238
528.4	0.00248
528.6	0.00252
528.8	0.00261
529.0	0.00256
529.2	0.00265
529.4	0.00266
529.6	0.00265
529.8	0.00261
530.0	0.00258
530.2	0.00258
530.4	0.00258
530.6	0.0026
530.8	0.00267
531.0	0.00268
531.2	0.0027
531.4	0.00274
531.6	0.00278
531.8	0.00275
532.0	0.00274
532.2	0.0028
532.4	0.00276
532.6	0.00274
532.8	0.00274
533.0	0.00272
533.2	0.00275
533.4	0.00275
533.6	0.00273
533.8	0.0027
534.0	0.00271
534.2	0.00271
534.4	0.00269
534.6	0.00269
534.8	0.00271
535.0	0.00276
535.2	0.00271
535.4	0.00279
535.6	0.00282
535.8	0.00282
536.0	0.00291
536.2	0.00302
536.4	0.00312
536.6	0.00326
536.8	0.00332
537.0	0.00349
537.2	0.00361
537.4	0.00376
537.6	0.00392
537.8	0.00401
538.0	0.00396
538.2	0.00388
538.4	0.00391
538.6	0.00401
538.8	0.00407
539.0	0.00425
539.2	0.00437
539.4	0.00465
539.6	0.00484
539.8	0.00513
540.0	0.00539
540.2	0.00579
540.4	0.00612
540.6	0.00662
540.8	0.00705
541.0	0.0076
541.2	0.00819
541.4	0.00889
541.6	0.00974
541.8	0.01057
542.0	0.01161
542.2	0.01268
542.4	0.01404
542.6	0.01557
542.8	0.01734
543.0	0.02101
543.2	0.02502
543.4	0.02749
543.6	0.03043
543.8	0.03377
544.0	0.03754
544.2	0.04186
544.4	0.04707
544.6	0.05302
544.8	0.06012
545.0	0.06785
545.2	0.07683
545.4	0.08715
545.6	0.09878
545.8	0.11171
546.0	0.12603
546.2	0.14226
546.4	0.15966
546.6	0.17814
546.8	0.19789
547.0	0.21843
547.2	0.24073
547.4	0.26295
547.6	0.28466
547.8	0.307
548.0	0.32886
548.2	0.34921
548.4	0.36889
548.6	0.38616
548.8	0.40328
549.0	0.41792
549.2	0.43098
549.4	0.44029
549.6	0.45065
549.8	0.45982
550.0	0.46507
550.2	0.46996
550.4	0.47314
550.6	0.47554
550.8	0.47789
551.0	0.47977
551.2	0.48106
551.4	0.48237
551.6	0.48558
551.8	0.48839
552.0	0.49363
552.2	0.49929
552.4	0.50577
552.6	0.51497
552.8	0.52635
553.0	0.54023
553.2	0.5578
553.4	0.57704
553.6	0.5995
553.8	0.62502
554.0	0.65108
554.2	0.67998
554.4	0.71016
554.6	0.73914
554.8	0.76912
555.0	0.79759
555.2	0.8266
555.4	0.85418
555.6	0.87836
555.8	0.90138
556.0	0.92044
556.2	0.9379
556.4	0.95001
556.6	0.96048
556.8	0.96643
557.0	0.97197
557.2	0.97499
557.4	0.9798
557.6	0.98084
557.8	0.98289
558.0	0.98615
558.2	0.98873
558.4	0.99047
558.6	0.98985
558.8	0.9917
559.0	0.99165
559.2	0.99254
559.4	0.99198
559.6	0.99537
559.8	0.99369
560.0	0.99326
560.2	0.9941
560.4	0.99592
560.6	0.99447
560.8	0.99566
561.0	0.99743
561.2	0.9951
561.4	0.99195
561.6	0.99129
561.8	0.99216
562.0	0.99022
562.2	0.9904
562.4	0.9903
562.6	0.9907
562.8	0.98969
563.0	0.99115
563.2	0.99052
563.4	0.98714
563.6	0.98735
563.8	0.98843
564.0	0.98569
564.2	0.98428
564.4	0.98171
564.6	0.98193
564.8	0.98286
565.0	0.982
565.2	0.98149
565.4	0.98091
565.6	0.97912
565.8	0.9771
566.0	0.97667
566.2	0.97571
566.4	0.97412
566.6	0.97564
566.8	0.97498
567.0	0.97398
567.2	0.97556
567.4	0.9748
567.6	0.97077
567.8	0.96972
568.0	0.97127
568.2	0.97128
568.4	0.97244
568.6	0.9709
568.8	0.97099
569.0	0.97028
569.2	0.97132
569.4	0.97067
569.6	0.97035
569.8	0.97222
570.0	0.97263
570.2	0.97389
570.4	0.97342
570.6	0.97263
570.8	0.97496
571.0	0.97617
571.2	0.97715
571.4	0.97875
571.6	0.97902
571.8	0.98067
572.0	0.98078
572.2	0.9823
572.4	0.983
572.6	0.98376
572.8	0.98508
573.0	0.98642
573.2	0.98581
573.4	0.98625
573.6	0.98582
573.8	0.9856
574.0	0.98518
574.2	0.98521
574.4	0.98666
574.6	0.98598
574.8	0.98549
575.0	0.98908
575.2	0.98627
575.4	0.98537
575.6	0.98697
575.8	0.98831
576.0	0.98754
576.2	0.98633
576.4	0.98645
576.6	0.98702
576.8	0.98781
577.0	0.98741
577.2	0.98655
577.4	0.98395
577.6	0.98246
577.8	0.98215
578.0	0.9841
578.2	0.98455
578.4	0.98395
578.6	0.98206
578.8	0.98226
579.0	0.97954
579.2	0.97829
579.4	0.97962
579.6	0.98159
579.8	0.98108
580.0	0.97966
580.2	0.9794
580.4	0.97888
580.6	0.98088
580.8	0.97988
581.0	0.98002
581.2	0.98009
581.4	0.97873
581.6	0.97846
581.8	0.97937
582.0	0.98147
582.2	0.98288
582.4	0.98032
582.6	0.98224
582.8	0.98369
583.0	0.98378
583.2	0.98358
583.4	0.98473
583.6	0.98326
583.8	0.98548
584.0	0.98592
584.2	0.98621
584.4	0.98763
584.6	0.98841
584.8	0.98602
585.0	0.98636
585.2	0.98658
585.4	0.98704
585.6	0.98737
585.8	0.98904
586.0	0.98874
586.2	0.98631
586.4	0.98842
586.6	0.98983
586.8	0.99063
587.0	0.99007
587.2	0.98699
587.4	0.98795
587.6	0.98919
587.8	0.99082
588.0	0.99016
588.2	0.98971
588.4	0.9898
588.6	0.98891
588.8	0.98783
589.0	0.98692
589.2	0.98748
589.4	0.99019
589.6	0.98924
589.8	0.98928
590.0	0.98903
590.2	0.98993
590.4	0.99092
590.6	0.9897
590.8	0.9892
591.0	0.98963
591.2	0.9887
591.4	0.98938
591.6	0.98901
591.8	0.99141
592.0	0.99293
592.2	0.99198
592.4	0.99269
592.6	0.98945
592.8	0.99223
593.0	0.99576
593.2	0.99423
593.4	0.99385
593.6	0.9936
593.8	0.99232
594.0	0.99059
594.2	0.99016
594.4	0.99097
594.6	0.98757
594.8	0.98826
595.0	0.9879
595.2	0.98814
595.4	0.99025
595.6	0.98752
595.8	0.98766
596.0	0.98838
596.2	0.98918
596.4	0.99087
596.6	0.99056
596.8	0.99165
597.0	0.99061
597.2	0.99078
597.4	0.98874
597.6	0.98894
597.8	0.98954
598.0	0.98927
598.2	0.98956
598.4	0.989
598.6	0.99049
598.8	0.99068
599.0	0.9893
599.2	0.98791
599.4	0.9881
599.6	0.9903
599.8	0.99014
