#Typical Measured Spectrum of Semrock LPD02-1064RU Optical Filter	
#For wavelengths between 320 and 1120 nm, values near or below 3e-7 (Optical Density 6.5) are measurement noise limited.
#For wavelengths < 320 nm and > 1120 nm, values near or below 3e-6 (Optical Density 5.5) are measurement noise limited. 
#Data format:  Wavelength (nm) <tab> Transmission (0 to 1)
1055.0	0.00521
1055.2	0.00528
1055.4	0.00549
1055.6	0.00556
1055.8	0.00562
1056.0	0.00563
1056.2	0.00569
1056.4	0.00587
1056.6	0.00581
1056.8	0.00589
1057.0	0.00624
1057.2	0.00645
1057.4	0.00627
1057.6	0.00654
1057.8	0.00662
1058.0	0.00687
1058.2	0.00694
1058.4	0.0074
1058.6	0.00748
1058.8	0.00781
1059.0	0.00807
1059.2	0.0084
1059.4	0.00873
1059.6	0.00896
1059.8	0.00952
1060.0	0.00963
1060.2	0.01025
1060.4	0.01056
1060.6	0.01108
1060.8	0.01147
1061.0	0.0121
1061.2	0.01271
1061.4	0.0137
1061.6	0.01416
1061.8	0.01498
1062.0	0.01585
1062.2	0.01675
1062.4	0.01756
1062.6	0.01863
1062.8	0.01981
1063.0	0.02135
1063.2	0.02268
1063.4	0.0243
1063.6	0.02559
1063.8	0.02754
1064.0	0.02965
1064.2	0.03184
1064.4	0.03361
1064.6	0.03661
1064.8	0.04317
1065.0	0.04675
1065.2	0.05088
1065.4	0.05545
1065.6	0.0603
1065.8	0.0656
1066.0	0.07123
1066.2	0.07801
1066.4	0.08563
1066.6	0.09343
1066.8	0.10251
1067.0	0.11253
1067.2	0.12275
1067.4	0.13488
1067.6	0.14765
1067.8	0.16255
1068.0	0.17817
1068.2	0.19414
1068.4	0.21329
1068.6	0.23265
1068.8	0.25444
1069.0	0.27637
1069.2	0.30138
1069.4	0.32617
1069.6	0.3527
1069.8	0.38026
1070.0	0.40932
1070.2	0.43901
1070.4	0.47164
1070.6	0.50142
1070.8	0.53419
1071.0	0.56638
1071.2	0.60258
1071.4	0.6322
1071.6	0.66647
1071.8	0.69457
1072.0	0.72284
1072.2	0.75209
1072.4	0.77991
1072.6	0.80606
1072.8	0.83224
1073.0	0.85376
1073.2	0.87318
1073.4	0.89541
1073.6	0.90908
1073.8	0.9199
1074.0	0.93085
1074.2	0.93785
1074.4	0.95045
1074.6	0.96043
1074.8	0.96386
1075.0	0.96812
1075.2	0.9731
1075.4	0.97487
1075.6	0.97486
1075.8	0.9755
1076.0	0.9765
1076.2	0.97943
1076.4	0.9799
1076.6	0.97915
1076.8	0.98168
1077.0	0.98227
1077.2	0.98342
1077.4	0.98518
1077.6	0.98506
1077.8	0.98722
1078.0	0.987
1078.2	0.9893
1078.4	0.98777
1078.6	0.98611
1078.8	0.98717
1079.0	0.98756
1079.2	0.98759
1079.4	0.98955
1079.6	0.98852
1079.8	0.98596
1080.0	0.98817
1080.2	0.98445
1080.4	0.98062
1080.6	0.97963
1080.8	0.97966
1081.0	0.97765
1081.2	0.97594
1081.4	0.97434
1081.6	0.97497
1081.8	0.97116
1082.0	0.97396
1082.2	0.97062
1082.4	0.97045
1082.6	0.97007
1082.8	0.96839
1083.0	0.96772
1083.2	0.96777
1083.4	0.96705
1083.6	0.96606
1083.8	0.96427
1084.0	0.96212
1084.2	0.96479
1084.4	0.96531
1084.6	0.96652
1084.8	0.96786
1085.0	0.97058
1085.2	0.96995
1085.4	0.96953
1085.6	0.96782
1085.8	0.96651
1086.0	0.96562
1086.2	0.96601
1086.4	0.96722
1086.6	0.96435
1086.8	0.96609
1087.0	0.96359
1087.2	0.96333
1087.4	0.9641
1087.6	0.96471
1087.8	0.96556
1088.0	0.96554
1088.2	0.9658
1088.4	0.96545
1088.6	0.96176
1088.8	0.95925
1089.0	0.95802
1089.2	0.95539
1089.4	0.95482
1089.6	0.95182
1089.8	0.95308
1090.0	0.95055
1090.2	0.94856
1090.4	0.94899
1090.6	0.94461
1090.8	0.94226
1091.0	0.93892
1091.2	0.94206
1091.4	0.94204
1091.6	0.94013
1091.8	0.94057
1092.0	0.93621
1092.2	0.93572
1092.4	0.93491
1092.6	0.93514
1092.8	0.9359
1093.0	0.93661
1093.2	0.93803
1093.4	0.9387
1093.6	0.94011
1093.8	0.93864
1094.0	0.94515
1094.2	0.94747
1094.4	0.949
1094.6	0.95229
1094.8	0.95394
1095.0	0.95353
1095.2	0.95706
1095.4	0.95551
1095.6	0.95968
1095.8	0.95905
1096.0	0.957
1096.2	0.95925
1096.4	0.9635
1096.6	0.96109
1096.8	0.96244
1097.0	0.96721
1097.2	0.96515
1097.4	0.96832
1097.6	0.96732
1097.8	0.96836
1098.0	0.97149
1098.2	0.96853
1098.4	0.97174
1098.6	0.97371
1098.8	0.97131
1099.0	0.96916
1099.2	0.97186
1099.4	0.97249
1099.6	0.96769
1099.8	0.96943
1100.0	0.97203
1100.2	0.96923
1100.4	0.96825
1100.6	0.96322
1100.8	0.96311
1101.0	0.96079
1101.2	0.95892
1101.4	0.95999
1101.6	0.95862
1101.8	0.95752
1102.0	0.95244
1102.2	0.95563
1102.4	0.95024
1102.6	0.95359
1102.8	0.95344
1103.0	0.95129
1103.2	0.94905
1103.4	0.94751
1103.6	0.94673
1103.8	0.94779
1104.0	0.94665
1104.2	0.94559
1104.4	0.95353
1104.6	0.94864
1104.8	0.95029
1105.0	0.94758
1105.2	0.94868
1105.4	0.94887
1105.6	0.94969
1105.8	0.94887
1106.0	0.94887
1106.2	0.95541
1106.4	0.95175
1106.6	0.9532
1106.8	0.95287
1107.0	0.95255
1107.2	0.95591
1107.4	0.95794
1107.6	0.96049
1107.8	0.96038
1108.0	0.95947
1108.2	0.95861
1108.4	0.96045
1108.6	0.96193
1108.8	0.96434
1109.0	0.96486
1109.2	0.96367
1109.4	0.96763
1109.6	0.96865
1109.8	0.96838
1110.0	0.97029
1110.2	0.97271
1110.4	0.97196
1110.6	0.97608
1110.8	0.97025
1111.0	0.97453
1111.2	0.97555
1111.4	0.97346
1111.6	0.9728
1111.8	0.97102
1112.0	0.97225
1112.2	0.96978
1112.4	0.96869
1112.6	0.97064
1112.8	0.97293
1113.0	0.96915
1113.2	0.9626
1113.4	0.96283
1113.6	0.96084
1113.8	0.95487
1114.0	0.95937
1114.2	0.95767
1114.4	0.9619
1114.6	0.95997
1114.8	0.95785
1115.0	0.95787
1115.2	0.95835
1115.4	0.95774
1115.6	0.95782
1115.8	0.95181
1116.0	0.95208
1116.2	0.94998
1116.4	0.95156
1116.6	0.94377
1116.8	0.94609
1117.0	0.94735
1117.2	0.93915
1117.4	0.94453
1117.6	0.94132
1117.8	0.94229
1118.0	0.94107
1118.2	0.94502
1118.4	0.94163
1118.6	0.9394
1118.8	0.93975
1119.0	0.94142
1119.2	0.94944
1119.4	0.95282
1119.6	0.95293
1119.8	0.95015
1120.0	0.95761
1120.2	0.95625
1120.4	0.959
1120.6	0.95507
1120.8	0.95623
1121.0	0.96093
1121.2	0.96003
1121.4	0.96427
1121.6	0.96421
1121.8	0.96514
1122.0	0.96208
1122.2	0.96226
1122.4	0.9642
1122.6	0.96284
1122.8	0.96141
1123.0	0.96793
1123.2	0.96311
1123.4	0.96118
1123.6	0.96864
1123.8	0.96684
1124.0	0.97287
1124.2	0.96956
1124.4	0.96889
1124.6	0.97268
1124.8	0.97643
1125.0	0.96091
1125.2	0.9615
1125.4	0.96208
1125.6	0.96267
1125.8	0.96326
1126.0	0.96385
1126.2	0.96444
1126.4	0.96502
1126.6	0.96561
1126.8	0.9662
1127.0	0.96679
1127.2	0.96738
1127.4	0.96797
1127.6	0.96855
1127.8	0.96914
1128.0	0.96973
1128.2	0.97032
1128.4	0.97091
1128.6	0.97149
1128.8	0.97208
1129.0	0.97267
1129.2	0.97326
1129.4	0.97385
1129.6	0.97443
1129.8	0.97502
1130.0	0.97561
1130.2	0.97464
1130.4	0.97367
1130.6	0.97271
1130.8	0.97174
1131.0	0.97077
1131.2	0.9698
1131.4	0.96883
1131.6	0.96787
1131.8	0.9669
1132.0	0.96593
1132.2	0.96496
1132.4	0.964
1132.6	0.96303
1132.8	0.96206
1133.0	0.96109
1133.2	0.96012
1133.4	0.95916
1133.6	0.95819
1133.8	0.95722
1134.0	0.95625
1134.2	0.95528
1134.4	0.95432
1134.6	0.95335
1134.8	0.95238
1135.0	0.95141
1135.2	0.95226
1135.4	0.95311
1135.6	0.95396
1135.8	0.95481
1136.0	0.95566
1136.2	0.95651
1136.4	0.95735
1136.6	0.9582
1136.8	0.95905
1137.0	0.9599
1137.2	0.96075
1137.4	0.9616
1137.6	0.96245
1137.8	0.9633
1138.0	0.96414
1138.2	0.96499
1138.4	0.96584
1138.6	0.96669
1138.8	0.96754
1139.0	0.96839
1139.2	0.96924
1139.4	0.97009
1139.6	0.97093
1139.8	0.97178
1140.0	0.97263
1140.2	0.97242
1140.4	0.97222
1140.6	0.97201
1140.8	0.9718
1141.0	0.97159
1141.2	0.97139
1141.4	0.97118
1141.6	0.97097
1141.8	0.97076
1142.0	0.97056
1142.2	0.97035
1142.4	0.97014
1142.6	0.96993
1142.8	0.96973
1143.0	0.96952
1143.2	0.96931
1143.4	0.9691
1143.6	0.9689
1143.8	0.96869
1144.0	0.96848
1144.2	0.96827
1144.4	0.96807
1144.6	0.96786
1144.8	0.96765
1145.0	0.96744
1145.2	0.96712
1145.4	0.9668
1145.6	0.96648
1145.8	0.96616
1146.0	0.96584
1146.2	0.96552
1146.4	0.9652
1146.6	0.96487
1146.8	0.96455
1147.0	0.96423
1147.2	0.96391
1147.4	0.96359
1147.6	0.96327
1147.8	0.96295
1148.0	0.96263
1148.2	0.9623
1148.4	0.96198
1148.6	0.96166
1148.8	0.96134
1149.0	0.96102
1149.2	0.9607
1149.4	0.96038
1149.6	0.96006
1149.8	0.95973
1150.0	0.95941
1150.2	0.96003
1150.4	0.96065
1150.6	0.96127
1150.8	0.96189
1151.0	0.9625
1151.2	0.96312
1151.4	0.96374
1151.6	0.96436
1151.8	0.96498
1152.0	0.9656
1152.2	0.96621
1152.4	0.96683
1152.6	0.96745
1152.8	0.96807
1153.0	0.96869
1153.2	0.96931
1153.4	0.96992
1153.6	0.97054
1153.8	0.97116
1154.0	0.97178
1154.2	0.9724
1154.4	0.97301
1154.6	0.97363
1154.8	0.97425
1155.0	0.97487
1155.2	0.97437
1155.4	0.97387
1155.6	0.97337
1155.8	0.97288
1156.0	0.97238
1156.2	0.97188
1156.4	0.97138
1156.6	0.97088
1156.8	0.97039
1157.0	0.96989
1157.2	0.96939
1157.4	0.96889
1157.6	0.96839
1157.8	0.96789
1158.0	0.9674
1158.2	0.9669
1158.4	0.9664
1158.6	0.9659
1158.8	0.9654
1159.0	0.9649
1159.2	0.96441
1159.4	0.96391
1159.6	0.96341
1159.8	0.96291
1160.0	0.96241
1160.2	0.96235
1160.4	0.96228
1160.6	0.96221
1160.8	0.96214
1161.0	0.96207
1161.2	0.96201
1161.4	0.96194
1161.6	0.96187
1161.8	0.9618
1162.0	0.96174
1162.2	0.96167
1162.4	0.9616
1162.6	0.96153
1162.8	0.96147
1163.0	0.9614
1163.2	0.96133
1163.4	0.96126
1163.6	0.96119
1163.8	0.96113
1164.0	0.96106
1164.2	0.96099
1164.4	0.96092
1164.6	0.96086
1164.8	0.96079
1165.0	0.96072
1165.2	0.96156
1165.4	0.96239
1165.6	0.96323
1165.8	0.96407
1166.0	0.9649
1166.2	0.96574
1166.4	0.96658
1166.6	0.96741
1166.8	0.96825
1167.0	0.96909
1167.2	0.96992
1167.4	0.97076
1167.6	0.9716
1167.8	0.97243
1168.0	0.97327
1168.2	0.97411
1168.4	0.97494
1168.6	0.97578
1168.8	0.97662
1169.0	0.97745
1169.2	0.97829
1169.4	0.97913
1169.6	0.97996
1169.8	0.9808
1170.0	0.98164
1170.2	0.98097
1170.4	0.98029
1170.6	0.97962
1170.8	0.97895
1171.0	0.97828
1171.2	0.9776
1171.4	0.97693
1171.6	0.97626
1171.8	0.97559
1172.0	0.97491
1172.2	0.97424
1172.4	0.97357
1172.6	0.9729
1172.8	0.97222
1173.0	0.97155
1173.2	0.97088
1173.4	0.9702
1173.6	0.96953
1173.8	0.96886
1174.0	0.96819
1174.2	0.96751
1174.4	0.96684
1174.6	0.96617
1174.8	0.9655
1175.0	0.96482
1175.2	0.96476
1175.4	0.96469
1175.6	0.96462
1175.8	0.96456
1176.0	0.96449
1176.2	0.96442
1176.4	0.96435
1176.6	0.96429
1176.8	0.96422
1177.0	0.96415
1177.2	0.96409
1177.4	0.96402
1177.6	0.96395
1177.8	0.96388
1178.0	0.96382
1178.2	0.96375
1178.4	0.96368
1178.6	0.96362
1178.8	0.96355
1179.0	0.96348
1179.2	0.96341
1179.4	0.96335
1179.6	0.96328
1179.8	0.96321
1180.0	0.96314
1180.2	0.96398
1180.4	0.96481
1180.6	0.96565
1180.8	0.96648
1181.0	0.96732
1181.2	0.96815
1181.4	0.96899
1181.6	0.96982
1181.8	0.97065
1182.0	0.97149
1182.2	0.97232
1182.4	0.97316
1182.6	0.97399
1182.8	0.97483
1183.0	0.97566
1183.2	0.9765
1183.4	0.97733
1183.6	0.97816
1183.8	0.979
1184.0	0.97983
1184.2	0.98067
1184.4	0.9815
1184.6	0.98234
1184.8	0.98317
1185.0	0.98401
1185.2	0.98342
1185.4	0.98283
1185.6	0.98224
1185.8	0.98165
1186.0	0.98106
1186.2	0.98048
1186.4	0.97989
1186.6	0.9793
1186.8	0.97871
1187.0	0.97812
1187.2	0.97754
1187.4	0.97695
1187.6	0.97636
1187.8	0.97577
1188.0	0.97518
1188.2	0.97459
1188.4	0.97401
1188.6	0.97342
1188.8	0.97283
1189.0	0.97224
1189.2	0.97165
1189.4	0.97106
1189.6	0.97048
1189.8	0.96989
1190.0	0.9693
1190.2	0.96915
1190.4	0.96899
1190.6	0.96884
1190.8	0.96869
1191.0	0.96853
1191.2	0.96838
1191.4	0.96823
1191.6	0.96807
1191.8	0.96792
1192.0	0.96777
1192.2	0.96761
1192.4	0.96746
1192.6	0.96731
1192.8	0.96715
1193.0	0.967
1193.2	0.96685
1193.4	0.96669
1193.6	0.96654
1193.8	0.96639
1194.0	0.96623
1194.2	0.96608
1194.4	0.96592
1194.6	0.96577
1194.8	0.96562
1195.0	0.96546
1195.2	0.96621
1195.4	0.96695
1195.6	0.9677
1195.8	0.96844
1196.0	0.96919
1196.2	0.96993
1196.4	0.97068
1196.6	0.97142
1196.8	0.97217
1197.0	0.97291
1197.2	0.97366
1197.4	0.9744
1197.6	0.97515
1197.8	0.97589
1198.0	0.97664
1198.2	0.97738
1198.4	0.97813
1198.6	0.97887
1198.8	0.97962
1199.0	0.98036
1199.2	0.98111
1199.4	0.98185
1199.6	0.9826
1199.8	0.98334
1200.0	0.98409
1200.2	0.98369
1200.4	0.9833
1200.6	0.98291
1200.8	0.98252
1201.0	0.98213
1201.2	0.98174
1201.4	0.98134
1201.6	0.98095
1201.8	0.98056
1202.0	0.98017
1202.2	0.97978
1202.4	0.97939
1202.6	0.97899
1202.8	0.9786
1203.0	0.97821
1203.2	0.97782
1203.4	0.97743
1203.6	0.97704
1203.8	0.97664
1204.0	0.97625
1204.2	0.97586
1204.4	0.97547
1204.6	0.97508
1204.8	0.97469
1205.0	0.97429
1205.2	0.97382
1205.4	0.97335
1205.6	0.97288
1205.8	0.9724
1206.0	0.97193
1206.2	0.97146
1206.4	0.97099
1206.6	0.97051
1206.8	0.97004
1207.0	0.96957
1207.2	0.9691
1207.4	0.96862
1207.6	0.96815
1207.8	0.96768
1208.0	0.96721
1208.2	0.96673
1208.4	0.96626
1208.6	0.96579
1208.8	0.96531
1209.0	0.96484
1209.2	0.96437
1209.4	0.9639
1209.6	0.96342
1209.8	0.96295
1210.0	0.96248
1210.2	0.96316
1210.4	0.96384
1210.6	0.96451
1210.8	0.96519
1211.0	0.96587
1211.2	0.96655
1211.4	0.96723
1211.6	0.96791
1211.8	0.96859
1212.0	0.96926
1212.2	0.96994
1212.4	0.97062
1212.6	0.9713
1212.8	0.97198
1213.0	0.97266
1213.2	0.97334
1213.4	0.97402
1213.6	0.97469
1213.8	0.97537
1214.0	0.97605
1214.2	0.97673
1214.4	0.97741
1214.6	0.97809
1214.8	0.97877
1215.0	0.97944
1215.2	0.97971
1215.4	0.97998
1215.6	0.98024
1215.8	0.98051
1216.0	0.98078
1216.2	0.98105
1216.4	0.98131
1216.6	0.98158
1216.8	0.98185
1217.0	0.98211
1217.2	0.98238
1217.4	0.98265
1217.6	0.98291
1217.8	0.98318
1218.0	0.98345
1218.2	0.98371
1218.4	0.98398
1218.6	0.98425
1218.8	0.98452
1219.0	0.98478
1219.2	0.98505
1219.4	0.98532
1219.6	0.98558
1219.8	0.98585
1220.0	0.98612
1220.2	0.98536
1220.4	0.98459
1220.6	0.98383
1220.8	0.98307
1221.0	0.98231
1221.2	0.98155
1221.4	0.98079
1221.6	0.98002
1221.8	0.97926
1222.0	0.9785
1222.2	0.97774
1222.4	0.97698
1222.6	0.97622
1222.8	0.97546
1223.0	0.97469
1223.2	0.97393
1223.4	0.97317
1223.6	0.97241
1223.8	0.97165
1224.0	0.97089
1224.2	0.97013
1224.4	0.96936
1224.6	0.9686
1224.8	0.96784
1225.0	0.96708
1225.2	0.96743
1225.4	0.96779
1225.6	0.96814
1225.8	0.9685
1226.0	0.96885
1226.2	0.96921
1226.4	0.96956
1226.6	0.96992
1226.8	0.97027
1227.0	0.97062
1227.2	0.97098
1227.4	0.97133
1227.6	0.97169
1227.8	0.97204
1228.0	0.9724
1228.2	0.97275
1228.4	0.97311
1228.6	0.97346
1228.8	0.97382
1229.0	0.97417
1229.2	0.97453
1229.4	0.97488
1229.6	0.97523
1229.8	0.97559
1230.0	0.97594
1230.2	0.97635
1230.4	0.97677
1230.6	0.97718
1230.8	0.97759
1231.0	0.978
1231.2	0.97841
1231.4	0.97882
1231.6	0.97923
1231.8	0.97965
1232.0	0.98006
1232.2	0.98047
1232.4	0.98088
1232.6	0.98129
1232.8	0.9817
1233.0	0.98212
1233.2	0.98253
1233.4	0.98294
1233.6	0.98335
1233.8	0.98376
1234.0	0.98417
1234.2	0.98458
1234.4	0.985
1234.6	0.98541
1234.8	0.98582
1235.0	0.98623
1235.2	0.98586
1235.4	0.9855
1235.6	0.98513
1235.8	0.98477
1236.0	0.9844
1236.2	0.98403
1236.4	0.98367
1236.6	0.9833
1236.8	0.98294
1237.0	0.98257
1237.2	0.9822
1237.4	0.98184
1237.6	0.98147
1237.8	0.98111
1238.0	0.98074
1238.2	0.98037
1238.4	0.98001
1238.6	0.97964
1238.8	0.97928
1239.0	0.97891
1239.2	0.97854
1239.4	0.97818
1239.6	0.97781
1239.8	0.97745
1240.0	0.97708
1240.2	0.9769
1240.4	0.97672
1240.6	0.97654
1240.8	0.97636
1241.0	0.97618
1241.2	0.976
1241.4	0.97582
1241.6	0.97564
1241.8	0.97546
1242.0	0.97528
1242.2	0.9751
1242.4	0.97492
1242.6	0.97474
1242.8	0.97456
1243.0	0.97438
1243.2	0.9742
1243.4	0.97402
1243.6	0.97384
1243.8	0.97366
1244.0	0.97348
1244.2	0.9733
1244.4	0.97313
1244.6	0.97295
1244.8	0.97277
1245.0	0.97259
1245.2	0.973
1245.4	0.97342
1245.6	0.97384
1245.8	0.97425
1246.0	0.97467
1246.2	0.97509
1246.4	0.97551
1246.6	0.97592
1246.8	0.97634
1247.0	0.97676
1247.2	0.97717
1247.4	0.97759
1247.6	0.97801
1247.8	0.97843
1248.0	0.97884
1248.2	0.97926
1248.4	0.97968
1248.6	0.98009
1248.8	0.98051
1249.0	0.98093
1249.2	0.98134
1249.4	0.98176
1249.6	0.98218
1249.8	0.9826
1250.0	0.98301
1250.2	0.9833
1250.4	0.98359
1250.6	0.98388
1250.8	0.98417
1251.0	0.98446
1251.2	0.98475
1251.4	0.98504
1251.6	0.98533
1251.8	0.98562
1252.0	0.98591
1252.2	0.9862
1252.4	0.98649
1252.6	0.98677
1252.8	0.98706
1253.0	0.98735
1253.2	0.98764
1253.4	0.98793
1253.6	0.98822
1253.8	0.98851
1254.0	0.9888
1254.2	0.98909
1254.4	0.98938
1254.6	0.98967
1254.8	0.98996
1255.0	0.99025
1255.2	0.9899
1255.4	0.98956
1255.6	0.98921
1255.8	0.98886
1256.0	0.98852
1256.2	0.98817
1256.4	0.98783
1256.6	0.98748
1256.8	0.98713
1257.0	0.98679
1257.2	0.98644
1257.4	0.9861
1257.6	0.98575
1257.8	0.9854
1258.0	0.98506
1258.2	0.98471
1258.4	0.98437
1258.6	0.98402
1258.8	0.98367
1259.0	0.98333
1259.2	0.98298
1259.4	0.98264
1259.6	0.98229
1259.8	0.98195
1260.0	0.9816
1260.2	0.98208
1260.4	0.98256
1260.6	0.98303
1260.8	0.98351
1261.0	0.98399
1261.2	0.98447
1261.4	0.98495
1261.6	0.98543
1261.8	0.98591
1262.0	0.98638
1262.2	0.98686
1262.4	0.98734
1262.6	0.98782
1262.8	0.9883
1263.0	0.98878
1263.2	0.98925
1263.4	0.98973
1263.6	0.99021
1263.8	0.99069
1264.0	0.99117
1264.2	0.99165
1264.4	0.99212
1264.6	0.9926
1264.8	0.99308
1265.0	0.99356
1265.2	0.99345
1265.4	0.99335
1265.6	0.99324
1265.8	0.99314
1266.0	0.99303
1266.2	0.99292
1266.4	0.99282
1266.6	0.99271
1266.8	0.99261
1267.0	0.9925
1267.2	0.99239
1267.4	0.99229
1267.6	0.99218
1267.8	0.99207
1268.0	0.99197
1268.2	0.99186
1268.4	0.99176
1268.6	0.99165
1268.8	0.99154
1269.0	0.99144
1269.2	0.99133
1269.4	0.99123
1269.6	0.99112
1269.8	0.99101
1270.0	0.99091
1270.2	0.99057
1270.4	0.99023
1270.6	0.98989
1270.8	0.98955
1271.0	0.98921
1271.2	0.98888
1271.4	0.98854
1271.6	0.9882
1271.8	0.98786
1272.0	0.98752
1272.2	0.98718
1272.4	0.98684
1272.6	0.98651
1272.8	0.98617
1273.0	0.98583
1273.2	0.98549
1273.4	0.98515
1273.6	0.98481
1273.8	0.98447
1274.0	0.98414
1274.2	0.9838
1274.4	0.98346
1274.6	0.98312
1274.8	0.98278
1275.0	0.98244
1275.2	0.98217
1275.4	0.98189
1275.6	0.98161
1275.8	0.98133
1276.0	0.98106
1276.2	0.98078
1276.4	0.9805
1276.6	0.98023
1276.8	0.97995
1277.0	0.97967
1277.2	0.9794
1277.4	0.97912
1277.6	0.97884
1277.8	0.97856
1278.0	0.97829
1278.2	0.97801
1278.4	0.97773
1278.6	0.97746
1278.8	0.97718
1279.0	0.9769
1279.2	0.97663
1279.4	0.97635
1279.6	0.97607
1279.8	0.97579
1280.0	0.97552
1280.2	0.9758
1280.4	0.97607
1280.6	0.97635
1280.8	0.97663
1281.0	0.97691
1281.2	0.97718
1281.4	0.97746
1281.6	0.97774
1281.8	0.97802
1282.0	0.9783
1282.2	0.97857
1282.4	0.97885
1282.6	0.97913
1282.8	0.97941
1283.0	0.97969
1283.2	0.97996
1283.4	0.98024
1283.6	0.98052
1283.8	0.9808
1284.0	0.98108
1284.2	0.98135
1284.4	0.98163
1284.6	0.98191
1284.8	0.98219
1285.0	0.98246
1285.2	0.98273
1285.4	0.98299
1285.6	0.98325
1285.8	0.98351
1286.0	0.98377
1286.2	0.98403
1286.4	0.98429
1286.6	0.98455
1286.8	0.98481
1287.0	0.98507
1287.2	0.98533
1287.4	0.98559
1287.6	0.98585
1287.8	0.98612
1288.0	0.98638
1288.2	0.98664
1288.4	0.9869
1288.6	0.98716
1288.8	0.98742
1289.0	0.98768
1289.2	0.98794
1289.4	0.9882
1289.6	0.98846
1289.8	0.98872
1290.0	0.98898
1290.2	0.98903
1290.4	0.98908
1290.6	0.98912
1290.8	0.98917
1291.0	0.98922
1291.2	0.98926
1291.4	0.98931
1291.6	0.98936
1291.8	0.9894
1292.0	0.98945
1292.2	0.9895
1292.4	0.98954
1292.6	0.98959
1292.8	0.98964
1293.0	0.98968
1293.2	0.98973
1293.4	0.98977
1293.6	0.98982
1293.8	0.98987
1294.0	0.98991
1294.2	0.98996
1294.4	0.99001
1294.6	0.99005
1294.8	0.9901
1295.0	0.99015
1295.2	0.99025
1295.4	0.99035
1295.6	0.99044
1295.8	0.99054
1296.0	0.99064
1296.2	0.99074
1296.4	0.99084
1296.6	0.99094
1296.8	0.99104
1297.0	0.99114
1297.2	0.99124
1297.4	0.99134
1297.6	0.99144
1297.8	0.99154
1298.0	0.99164
1298.2	0.99174
1298.4	0.99184
1298.6	0.99194
1298.8	0.99204
1299.0	0.99214
1299.2	0.99224
1299.4	0.99234
1299.6	0.99244
1299.8	0.99253
1300.0	0.99263
1300.2	0.99275
1300.4	0.99286
1300.6	0.99297
1300.8	0.99308
1301.0	0.99319
1301.2	0.99331
1301.4	0.99342
1301.6	0.99353
1301.8	0.99364
